Data Point Listing of File D:\Samples\Fpraktikum\2023-winter\10112023\Spectrum-optimized-45x6MHz.tnt
Starting Point:	1	Ending Point:	512
Real	Imag	Hz
1104645.000	299584.000	500000.000
-708378.938	-354939.594	498046.875
825502.688	110457.234	496093.750
1964208.750	1915448.625	494140.625
1336427.000	-199193.828	492187.500
331527.000	-2995088.000	490234.375
945363.125	2349248.000	488281.250
-1710622.500	2182040.750	486328.125
839323.125	243033.297	484375.000
1440918.625	-2573343.000	482421.875
-963798.875	-754767.188	480468.750
-1058557.875	-1649345.250	478515.625
2367950.750	1195012.750	476562.500
1455957.000	1445514.875	474609.375
-2516545.500	1063005.250	472656.250
1407110.625	-802917.938	470703.125
-1321900.625	-823731.313	468750.000
1067543.500	-393949.156	466796.875
439333.906	1902248.000	464843.750
-1787524.500	-3134744.000	462890.625
478092.438	2281083.250	460937.500
-2710193.750	1541038.500	458984.375
2466955.750	-430272.125	457031.250
988659.375	1932336.625	455078.125
1648514.750	1132371.625	453125.000
-3928852.750	-2200913.000	451171.875
627625.313	-1583659.625	449218.750
-4655632.000	-1672279.875	447265.625
-2285501.000	-3528690.000	445312.500
2010851.625	-1290096.125	443359.375
2195369.000	-466756.406	441406.250
120288.891	625595.375	439453.125
-2720669.000	1799093.500	437500.000
-312506.531	-1405098.875	435546.875
2385134.000	2409289.250	433593.750
1670882.375	312702.063	431640.625
2141116.500	-1443728.750	429687.500
-2413986.750	1002876.813	427734.375
2143878.500	1307838.500	425781.250
2667776.750	-1444729.625	423828.125
-3058603.000	-625952.125	421875.000
16840.455	-1205634.500	419921.875
4610146.500	2932642.250	417968.750
-1010609.750	-332324.281	416015.625
-1980588.375	-1763738.750	414062.500
-1601039.625	162564.547	412109.375
482550.875	928455.938	410156.250
-144990.828	178943.266	408203.125
-114894.953	-1931145.375	406250.000
1677289.750	637346.438	404296.875
-4260747.000	-454444.781	402343.750
-3536743.750	1454292.375	400390.625
1360411.875	3113853.500	398437.500
4959229.500	555274.000	396484.375
-4814965.000	-1435927.375	394531.250
2087016.125	2136989.750	392578.125
1482966.625	1737958.125	390625.000
681745.000	578713.125	388671.875
1512316.125	-601139.750	386718.750
-4671983.000	-1787636.625	384765.625
-1226309.875	-911469.125	382812.500
-3148565.500	-3777596.250	380859.375
-754058.688	387309.250	378906.250
521024.563	-1506335.375	376953.125
1529483.250	-449050.969	375000.000
455597.375	113870.352	373046.875
2901180.000	-32208.713	371093.750
2276606.500	326694.656	369140.625
-600916.313	1129372.500	367187.500
-2086759.750	2172601.000	365234.375
701346.688	1566128.375	363281.250
2268409.750	-1408491.625	361328.125
1481877.250	-1324594.875	359375.000
-967493.188	-2895217.500	357421.875
2813335.250	1410027.500	355468.750
713907.188	-1154218.875	353515.625
-4016340.250	5046694.500	351562.500
-3537986.000	-1261873.000	349609.375
879605.813	-818220.125	347656.250
280427.938	355592.688	345703.125
-3164.303	442282.563	343750.000
3852641.500	3175114.500	341796.875
-517058.375	-95697.711	339843.750
1731624.625	-210364.969	337890.625
-1033426.625	-1605089.250	335937.500
-1761099.625	-1372076.375	333984.375
607425.938	1022366.438	332031.250
-566651.313	-441084.719	330078.125
5545485.500	-536264.500	328125.000
584848.000	-1893162.250	326171.875
1225141.000	2049367.625	324218.750
626834.625	-1178398.500	322265.625
4076016.500	2608449.750	320312.500
646800.813	1646289.375	318359.375
581074.875	-177022.766	316406.250
-892587.063	-4428145.500	314453.125
4194986.500	-2476291.500	312500.000
-3292951.000	1039806.875	310546.875
2407302.500	-135175.031	308593.750
2183788.000	6255000.000	306640.625
-799926.375	325176.469	304687.500
1414304.625	1200759.250	302734.375
-4633180.000	-1465235.500	300781.250
2807908.000	1360215.375	298828.125
2066653.500	-997464.625	296875.000
1933881.875	-2891764.500	294921.875
-584470.938	-3991234.750	292968.750
1295642.375	-1124205.875	291015.625
1233476.750	-3204339.250	289062.500
-1040336.375	-2816570.250	287109.375
788761.250	1959412.625	285156.250
1207659.375	2657175.750	283203.125
-4620301.500	-780519.063	281250.000
-4611291.500	-2507331.250	279296.875
-1653855.250	1454394.625	277343.750
2282029.000	-38960.699	275390.625
-394806.313	-1219560.750	273437.500
927462.438	-2080047.250	271484.375
-100115.711	-140621.438	269531.250
1210323.375	-3751379.000	267578.125
338752.844	2452242.500	265625.000
-230492.766	-2069542.750	263671.875
1857199.125	-920528.500	261718.750
2623200.500	-2081029.000	259765.625
322720.094	-872149.625	257812.500
3861915.500	-1933777.375	255859.375
3702632.000	21369.209	253906.250
1185827.750	417318.188	251953.125
-2131204.750	-1225119.875	250000.000
-2496340.500	-3386634.750	248046.875
194008.969	-545539.125	246093.750
389763.250	-3174389.000	244140.625
2456856.000	-672388.688	242187.500
-1727475.750	92471.047	240234.375
3026746.250	-1052550.125	238281.250
-1351354.875	-3464046.750	236328.125
-2044429.000	-651654.125	234375.000
-2598785.250	-199782.672	232421.875
-1526494.875	711622.500	230468.750
-496397.875	-2683006.500	228515.625
668379.313	-511608.000	226562.500
-1458265.250	2503117.250	224609.375
-274905.688	-1230038.000	222656.250
1134680.375	2662518.250	220703.125
-1408860.625	1730846.250	218750.000
-7050288.500	-1708353.750	216796.875
-354526.625	-3348346.500	214843.750
-2846743.000	-3077946.000	212890.625
-776240.750	885650.875	210937.500
1914815.125	-617782.188	208984.375
-1008168.875	4180260.750	207031.250
367132.531	1085019.500	205078.125
3381995.250	-3146558.000	203125.000
-1263636.625	-343590.094	201171.875
1979360.125	1704564.875	199218.750
591356.563	-1227519.500	197265.625
2364354.500	455620.281	195312.500
1081612.750	3007048.500	193359.375
2645188.750	-153152.344	191406.250
1354797.500	1495522.875	189453.125
2593412.000	1772965.750	187500.000
2374805.250	473942.031	185546.875
588663.563	1192886.500	183593.750
937265.500	-3351359.500	181640.625
1692004.500	197819.656	179687.500
1723776.625	-1493700.125	177734.375
1358950.375	1697247.125	175781.250
-2277136.500	-143474.438	173828.125
4564255.000	231565.672	171875.000
-2771140.000	-923963.188	169921.875
1066469.875	-1899433.250	167968.750
4034497.000	-3054731.750	166015.625
2448880.500	3122266.250	164062.500
-1891006.250	-2239234.500	162109.375
-3260098.000	-4160393.500	160156.250
-322804.844	-917191.000	158203.125
-1233081.125	-4729475.000	156250.000
-4514110.000	-815360.250	154296.875
-2576326.750	-6510680.000	152343.750
-3182190.500	1195839.125	150390.625
-609398.500	133175.953	148437.500
1958985.375	-991723.938	146484.375
-538044.125	-1586843.750	144531.250
-2178248.500	-3421574.750	142578.125
4133123.250	1019364.313	140625.000
238451.250	-1451199.500	138671.875
-906144.438	-879161.938	136718.750
-606436.438	383480.781	134765.625
353788.406	-594077.875	132812.500
-2404230.250	-3526184.500	130859.375
-544616.125	979365.438	128906.250
2852201.250	416614.406	126953.125
-1180553.500	1904895.750	125000.000
-2246406.500	427189.094	123046.875
2290157.250	-693412.250	121093.750
2500193.000	-751701.500	119140.625
-1123117.500	2266562.750	117187.500
2592870.250	40526.941	115234.375
1108071.625	-737078.125	113281.250
-2372805.750	-1169144.500	111328.125
4423361.000	-570425.875	109375.000
-867711.688	1451077.000	107421.875
2618500.500	893485.625	105468.750
5245188.000	-580673.938	103515.625
1939888.000	943581.750	101562.500
1562596.375	919012.188	99609.375
-2738265.750	2821776.000	97656.250
1000848.813	-6511436.500	95703.125
3496989.000	892790.000	93750.000
5637278.500	-3095857.000	91796.875
-1142617.125	-1789495.125	89843.750
3214318.500	618531.125	87890.625
-2795891.250	1351079.250	85937.500
1970860.750	-2105066.750	83984.375
-92029.766	-1390577.125	82031.250
-217289.484	-727879.250	80078.125
242886.844	-3139420.500	78125.000
966932.438	-7024956.500	76171.875
1607897.125	673142.063	74218.750
1544549.250	-3240800.500	72265.625
1633616.750	589371.375	70312.500
1448747.625	-1852192.250	68359.375
-1064994.750	-4504203.500	66406.250
-3156377.500	-2114237.250	64453.125
-949321.125	-2086776.875	62500.000
-3526114.750	1954042.375	60546.875
2578496.750	-4116422.000	58593.750
-2079044.125	-2050278.750	56640.625
-2043679.750	-522653.625	54687.500
-1582272.000	616368.688	52734.375
-1337002.375	-1242624.625	50781.250
-4271323.500	-3645278.250	48828.125
-1663107.375	-1492373.250	46875.000
-1468410.250	-1762112.250	44921.875
290022.406	-795621.688	42968.750
2624347.500	-47074.750	41015.625
-1279779.875	-2433622.750	39062.500
969928.188	1504575.625	37109.375
-3203443.000	-102461.008	35156.250
-498812.219	-2377441.750	33203.125
-1377917.250	1050770.875	31250.000
-4820917.000	3796569.750	29296.875
6919181.000	-1769162.375	27343.750
-1337419.125	1571607.375	25390.625
7551555.000	2199932.250	23437.500
7943657.000	2122880.250	21484.375
1253610.625	2145355.750	19531.250
4376416.000	391752.188	17578.125
1961609.500	2015823.000	15625.000
71943.875	-1164508.375	13671.875
4418759.000	-675803.313	11718.750
6136014.500	-2340565.750	9765.625
2208691.250	1860583.125	7812.500
2266611.750	-1056145.000	5859.375
6270498.500	-3896653.750	3906.250
3020190.500	-2325108.500	1953.125
4929002.500	-1613267.125	0.000
2715891.750	-2490894.000	-1953.125
3344437.250	-2382501.500	-3906.250
804169.875	-5308512.000	-5859.375
6927643.000	-2686523.000	-7812.500
3098375.250	-8186979.000	-9765.625
-970807.500	-3151890.500	-11718.750
1990131.500	-3779194.750	-13671.875
-471045.094	-5141211.500	-15625.000
1494612.500	-5947590.500	-17578.125
3645548.250	-10128872.000	-19531.250
-1627935.500	-6394520.500	-21484.375
-960219.000	-4236440.500	-23437.500
924390.688	-4454279.000	-25390.625
-4542461.500	-5698187.000	-27343.750
-5508709.000	-292721.906	-29296.875
-2545134.250	-3916143.500	-31250.000
-2688795.000	-4973194.500	-33203.125
-3753327.000	-4002285.000	-35156.250
-2712425.250	-4631162.000	-37109.375
-661545.625	-1575005.875	-39062.500
-6706181.500	-104843.695	-41015.625
-8725112.000	-307837.375	-42968.750
-8062014.000	2249970.750	-44921.875
-2074196.625	120897.445	-46875.000
2930063.250	133191.781	-48828.125
-3972901.250	438793.438	-50781.250
-4302684.000	3768901.250	-52734.375
-2074251.750	3599412.750	-54687.500
-2760872.750	3114404.750	-56640.625
-654676.063	4992021.000	-58593.750
-1508418.375	9077558.000	-60546.875
-5060745.500	10983163.000	-62500.000
15346211.000	-2995542.500	-64453.125
7970709.000	6586107.000	-66406.250
11678826.000	6405199.500	-68359.375
12213476.000	6776571.000	-70312.500
10562793.000	4701613.500	-72265.625
14688821.000	4408707.000	-74218.750
17555632.000	4830695.500	-76171.875
16400755.000	-2423525.750	-78125.000
19761550.000	-1371058.375	-80078.125
19758934.000	-2381948.500	-82031.250
23569142.000	-6446883.500	-83984.375
20404462.000	-6257222.500	-85937.500
27848266.000	-15953505.000	-87890.625
26806588.000	-16035677.000	-89843.750
25593518.000	-17085768.000	-91796.875
24480698.000	-23821844.000	-93750.000
27475878.000	-28687652.000	-95703.125
22186466.000	-31494044.000	-97656.250
19209898.000	-40237904.000	-99609.375
18095550.000	-47311320.000	-101562.500
13343581.000	-49446428.000	-103515.625
3664885.500	-55095824.000	-105468.750
3033510.250	-59251032.000	-107421.875
-8657992.000	-63145472.000	-109375.000
-17999726.000	-64691496.000	-111328.125
-27829216.000	-66150076.000	-113281.250
-42705724.000	-69031664.000	-115234.375
-53162804.000	-65026060.000	-117187.500
-69658776.000	-56437716.000	-119140.625
-83139144.000	-40651052.000	-121093.750
-87640248.000	-29431476.000	-123046.875
-86979656.000	-8573763.000	-125000.000
-86979552.000	7659090.000	-126953.125
-76776784.000	21234406.000	-128906.250
-76173944.000	33633060.000	-130859.375
-64965368.000	47327188.000	-132812.500
-56240964.000	44949516.000	-134765.625
-44460944.000	54335164.000	-136718.750
-37747824.000	53052412.000	-138671.875
-23302548.000	54232364.000	-140625.000
-19178794.000	57681096.000	-142578.125
-10134026.000	50896600.000	-144531.250
-5645433.500	50486228.000	-146484.375
2763606.750	43959664.000	-148437.500
5600889.000	43064460.000	-150390.625
9913652.000	33928316.000	-152343.750
17017020.000	36996316.000	-154296.875
16231404.000	34184544.000	-156250.000
20299410.000	24208276.000	-158203.125
15318761.000	18408450.000	-160156.250
21550130.000	21201516.000	-162109.375
14307760.000	12586707.000	-164062.500
18557236.000	13833438.000	-166015.625
22625598.000	7430940.000	-167968.750
18536458.000	9889728.000	-169921.875
21073386.000	5650311.500	-171875.000
13131192.000	3188762.250	-173828.125
9228280.000	-3678580.750	-175781.250
14190204.000	-92999.125	-177734.375
11520340.000	473911.719	-179687.500
8046214.500	-1804719.500	-181640.625
4616484.500	-4362938.500	-183593.750
3115557.000	-1311725.500	-185546.875
2238111.000	-4037344.250	-187500.000
5710948.500	-6339860.000	-189453.125
3060222.750	-2759852.500	-191406.250
-310578.625	-5110295.500	-193359.375
758817.313	-4363110.000	-195312.500
-1130287.875	-5690202.000	-197265.625
-4903541.000	-7178337.000	-199218.750
5660570.500	3989853.500	-201171.875
137948.672	1373311.625	-203125.000
1013584.063	-2143405.000	-205078.125
-2121030.500	1039046.375	-207031.250
-3730935.750	-641408.250	-208984.375
-436273.906	2024431.500	-210937.500
-307121.281	2717434.250	-212890.625
-3515010.000	-4182414.250	-214843.750
-710666.625	4468166.000	-216796.875
-2378882.250	2968589.000	-218750.000
824048.813	-1177123.750	-220703.125
-2557624.000	3220673.000	-222656.250
1673732.500	3034229.000	-224609.375
-344967.000	1655001.125	-226562.500
-5077582.500	6338246.500	-228515.625
-6480213.500	-1716997.000	-230468.750
4407919.000	7153351.500	-232421.875
894917.063	-765014.375	-234375.000
-1889388.000	1616416.750	-236328.125
525545.813	-619085.875	-238281.250
-1589846.250	6647451.500	-240234.375
-406434.969	-741693.188	-242187.500
2376973.750	3888570.250	-244140.625
1389694.375	-506775.906	-246093.750
-404855.250	1509428.500	-248046.875
-899574.688	5056662.500	-250000.000
-534848.250	1397487.125	-251953.125
449991.688	-3283808.750	-253906.250
5567139.500	654779.375	-255859.375
2255198.750	224032.156	-257812.500
-1741416.375	1015013.063	-259765.625
2024179.625	1396874.375	-261718.750
4814325.500	4592669.000	-263671.875
-1044076.188	-2178117.500	-265625.000
2755901.000	1936572.375	-267578.125
1043084.500	-2496213.000	-269531.250
2205663.250	-535414.688	-271484.375
-2125100.750	-4029618.000	-273437.500
1221664.875	3309765.250	-275390.625
-871978.000	1640043.125	-277343.750
-1793746.375	1718202.625	-279296.875
663368.938	-2483898.250	-281250.000
-642804.250	-394554.188	-283203.125
451990.500	-2855436.500	-285156.250
-3932517.250	2849893.000	-287109.375
4130787.000	-593794.063	-289062.500
3574118.500	746210.500	-291015.625
-2251152.250	403977.156	-292968.750
700427.188	5628386.500	-294921.875
-3303000.750	2758887.250	-296875.000
921936.750	-319275.563	-298828.125
-1962193.000	1146999.500	-300781.250
3304310.000	-279197.938	-302734.375
2497113.000	3399655.750	-304687.500
-4333744.500	3926941.500	-306640.625
-46411.750	-2805129.250	-308593.750
219314.828	3628722.000	-310546.875
-303510.469	2039206.000	-312500.000
-1254925.000	3245427.750	-314453.125
-3206493.000	2440792.500	-316406.250
1309274.625	3657925.500	-318359.375
1300680.250	2189064.750	-320312.500
213643.641	349941.219	-322265.625
-2703166.750	4905170.000	-324218.750
-4322582.000	2867690.000	-326171.875
-421007.844	-1485730.125	-328125.000
1834589.000	1262610.000	-330078.125
-977498.938	-1447914.375	-332031.250
-2076908.000	2070323.750	-333984.375
-1086381.125	-2798121.500	-335937.500
-574161.750	-741231.188	-337890.625
917458.813	-1534288.625	-339843.750
3038896.000	-800789.250	-341796.875
1199842.750	-856239.125	-343750.000
-3880174.750	416362.531	-345703.125
1530696.125	752741.688	-347656.250
-895527.938	-1504755.750	-349609.375
-53042.441	2386372.750	-351562.500
-710224.250	7514606.000	-353515.625
1458169.125	-1458037.125	-355468.750
4318752.500	-2230705.750	-357421.875
702862.188	1014919.625	-359375.000
-2972730.000	-2155551.250	-361328.125
-1187539.375	-3128574.750	-363281.250
-713802.625	-3655501.500	-365234.375
3277309.500	2850574.250	-367187.500
-2616159.750	1152251.750	-369140.625
-1343412.750	145133.750	-371093.750
3458763.250	2405482.750	-373046.875
-1424925.625	673255.813	-375000.000
3453347.500	1149894.875	-376953.125
-1681711.625	1431027.125	-378906.250
519919.344	2087198.500	-380859.375
348665.813	-120141.594	-382812.500
-58033.934	-3106933.750	-384765.625
2137583.750	924953.563	-386718.750
18731.258	-404397.219	-388671.875
-2683638.250	1925505.500	-390625.000
914965.500	1616934.875	-392578.125
4642994.000	3683101.750	-394531.250
-2882521.750	1177661.625	-396484.375
-2195047.750	-560032.875	-398437.500
7654889.500	-764785.125	-400390.625
5461459.500	-168280.094	-402343.750
2841625.250	-66451.063	-404296.875
2788319.000	2266147.250	-406250.000
-2054866.375	677302.938	-408203.125
-2759597.750	1513812.500	-410156.250
1646794.375	3400773.500	-412109.375
-763879.313	3102747.500	-414062.500
1618621.125	-3142682.000	-416015.625
2196675.000	-2268683.250	-417968.750
-1205251.625	-4278194.500	-419921.875
-1558304.875	4647381.000	-421875.000
-1504732.375	1294298.250	-423828.125
259414.891	1387879.250	-425781.250
3073419.750	-1432811.750	-427734.375
-390025.875	2616318.000	-429687.500
-2870599.750	170192.563	-431640.625
-8974287.000	5520411.000	-433593.750
-2993746.500	1231419.750	-435546.875
1084077.000	-4533598.000	-437500.000
4608431.000	-2304656.750	-439453.125
52135.602	-2910849.000	-441406.250
-240305.734	-1239483.875	-443359.375
3853419.250	545345.750	-445312.500
-15519.579	516545.781	-447265.625
966001.813	-941290.188	-449218.750
271140.969	92256.750	-451171.875
2016335.750	955201.000	-453125.000
-915708.563	966911.313	-455078.125
1339947.125	907457.000	-457031.250
374244.031	1005734.063	-458984.375
2266116.000	729567.375	-460937.500
602979.938	810251.375	-462890.625
-5049388.500	-5215421.500	-464843.750
991662.813	693034.125	-466796.875
-125583.617	2234406.250	-468750.000
623017.250	1642504.375	-470703.125
59474.750	2663693.500	-472656.250
1335753.875	870209.313	-474609.375
747987.063	-1186107.750	-476562.500
239248.516	-320965.313	-478515.625
1215108.625	-125037.688	-480468.750
-1734598.000	-2199513.000	-482421.875
-3420024.500	2433023.500	-484375.000
1764375.125	-2165757.250	-486328.125
-2236341.750	-1261251.000	-488281.250
114693.422	-905278.375	-490234.375
512568.875	1326739.250	-492187.500
1799075.125	-3977552.250	-494140.625
972811.313	-391567.813	-496093.750
-969604.938	-1129592.500	-498046.875
